SpectraSuite Data File
++++++++++++++++++++++++++++++++++++
Date: Thu Oct 10 11:27:14 EDT 2019
User: surp
Dark Spectrum Present: No
Reference Spectrum Present: No
Number of Sampled Component Spectra: 1
Spectrometers: USB2+H05261
Integration Time (usec): 100000 (USB2+H05261)
Spectra Averaged: 1 (USB2+H05261)
Boxcar Smoothing: 0 (USB2+H05261)
Correct for Electrical Dark: No (USB2+H05261)
Strobe/Lamp Enabled: No (USB2+H05261)
Correct for Detector Non-linearity: No (USB2+H05261)
Correct for Stray Light: No (USB2+H05261)
Number of Pixels in Processed Spectrum: 2048
>>>>>Begin Processed Spectral Data<<<<<
0.00	997.07
1.00	997.07
2.00	997.07
3.00	1001.75
4.00	933.87
5.00	919.83
6.00	931.53
7.00	877.70
8.00	917.49
9.00	952.60
10.00	910.47
11.00	863.66
12.00	868.34
13.00	933.87
14.00	882.38
15.00	978.34
16.00	947.92
17.00	905.79
18.00	896.43
19.00	901.11
20.00	945.58
21.00	1004.09
22.00	945.58
23.00	943.24
24.00	1015.79
25.00	943.24
26.00	1001.75
27.00	1018.13
28.00	1015.79
29.00	980.68
30.00	1074.31
31.00	1027.50
32.00	959.62
33.00	1060.26
34.00	1032.18
35.00	1069.62
36.00	1064.94
37.00	1060.26
38.00	1093.03
39.00	1057.92
40.00	1071.97
41.00	1181.97
42.00	1067.28
43.00	1050.90
44.00	1081.33
45.00	1088.35
46.00	1104.73
47.00	1064.94
48.00	1043.88
49.00	1076.65
50.00	1081.33
51.00	1050.90
52.00	1067.28
53.00	1055.58
54.00	1022.81
55.00	1018.13
56.00	1046.22
57.00	1008.77
58.00	1100.05
59.00	1048.56
60.00	1006.43
61.00	1130.48
62.00	1102.39
63.00	1086.01
64.00	1078.99
65.00	1053.24
66.00	1146.86
67.00	1132.82
68.00	1107.07
69.00	1097.71
70.00	1039.20
71.00	1083.67
72.00	1153.88
73.00	1062.60
74.00	1008.77
75.00	1090.69
76.00	999.41
77.00	1020.47
78.00	1067.28
79.00	1104.73
80.00	1046.22
81.00	1034.52
82.00	943.24
83.00	1086.01
84.00	1050.90
85.00	999.41
86.00	1060.26
87.00	1088.35
88.00	1125.80
89.00	1088.35
90.00	1081.33
91.00	1060.26
92.00	1050.90
93.00	1018.13
94.00	1090.69
95.00	1067.28
96.00	1029.84
97.00	1093.03
98.00	1102.39
99.00	1062.60
100.00	1015.79
101.00	1048.56
102.00	1015.79
103.00	1097.71
104.00	1039.20
105.00	1097.71
106.00	1093.03
107.00	1055.58
108.00	1100.05
109.00	1121.12
110.00	1086.01
111.00	1053.24
112.00	1001.75
113.00	1004.09
114.00	1041.54
115.00	1071.97
116.00	1064.94
117.00	1088.35
118.00	1095.37
119.00	1041.54
120.00	1015.79
121.00	1104.73
122.00	1100.05
123.00	1039.20
124.00	1025.15
125.00	1034.52
126.00	1144.52
127.00	1055.58
128.00	1078.99
129.00	1001.75
130.00	1039.20
131.00	1060.26
132.00	1046.22
133.00	992.39
134.00	1064.94
135.00	983.02
136.00	1078.99
137.00	1107.07
138.00	1029.84
139.00	1067.28
140.00	1015.79
141.00	1086.01
142.00	1100.05
143.00	1109.41
144.00	1132.82
145.00	1069.62
146.00	971.32
147.00	1057.92
148.00	1083.67
149.00	1050.90
150.00	1135.16
151.00	1095.37
152.00	1118.78
153.00	1116.44
154.00	1128.14
155.00	1156.22
156.00	1078.99
157.00	1100.05
158.00	1139.84
159.00	1064.94
160.00	1083.67
161.00	1100.05
162.00	1057.92
163.00	1071.97
164.00	1102.39
165.00	1088.35
166.00	1093.03
167.00	1053.24
168.00	1086.01
169.00	1071.97
170.00	1111.75
171.00	1060.26
172.00	1170.27
173.00	1036.86
174.00	1121.12
175.00	1128.14
176.00	1107.07
177.00	1100.05
178.00	1022.81
179.00	1076.65
180.00	1104.73
181.00	1050.90
182.00	1011.11
183.00	1095.37
184.00	1121.12
185.00	1104.73
186.00	1018.13
187.00	1076.65
188.00	1123.46
189.00	1102.39
190.00	1060.26
191.00	1048.56
192.00	1064.94
193.00	1067.28
194.00	1095.37
195.00	1156.22
196.00	1102.39
197.00	1090.69
198.00	1090.69
199.00	1064.94
200.00	1029.84
201.00	1060.26
202.00	1139.84
203.00	1139.84
204.00	1062.60
205.00	1090.69
206.00	1158.57
207.00	1086.01
208.00	1041.54
209.00	1025.15
210.00	1022.81
211.00	1071.97
212.00	1069.62
213.00	1146.86
214.00	1097.71
215.00	1107.07
216.00	1095.37
217.00	1109.41
218.00	1111.75
219.00	1057.92
220.00	1118.78
221.00	1036.86
222.00	1210.06
223.00	1198.35
224.00	1170.27
225.00	1174.95
226.00	1142.18
227.00	1151.54
228.00	1111.75
229.00	1123.46
230.00	1060.26
231.00	1088.35
232.00	1116.44
233.00	1046.22
234.00	1139.84
235.00	1135.16
236.00	1088.35
237.00	1067.28
238.00	1128.14
239.00	1076.65
240.00	1076.65
241.00	1041.54
242.00	1048.56
243.00	1109.41
244.00	1130.48
245.00	994.73
246.00	1156.22
247.00	1057.92
248.00	1093.03
249.00	1151.54
250.00	1053.24
251.00	1130.48
252.00	1078.99
253.00	1048.56
254.00	1074.31
255.00	1104.73
256.00	1083.67
257.00	1036.86
258.00	1083.67
259.00	1088.35
260.00	1064.94
261.00	1107.07
262.00	1111.75
263.00	1121.12
264.00	1081.33
265.00	1128.14
266.00	1078.99
267.00	1139.84
268.00	1160.91
269.00	1067.28
270.00	1093.03
271.00	1097.71
272.00	1111.75
273.00	1076.65
274.00	1158.57
275.00	1071.97
276.00	1088.35
277.00	1160.91
278.00	1067.28
279.00	1086.01
280.00	1062.60
281.00	1008.77
282.00	1107.07
283.00	1097.71
284.00	1118.78
285.00	1053.24
286.00	1107.07
287.00	1114.10
288.00	1034.52
289.00	1069.62
290.00	1144.52
291.00	1078.99
292.00	1078.99
293.00	1090.69
294.00	1114.10
295.00	1086.01
296.00	1060.26
297.00	1069.62
298.00	1067.28
299.00	1078.99
300.00	1095.37
301.00	1104.73
302.00	1128.14
303.00	1100.05
304.00	1095.37
305.00	1097.71
306.00	1102.39
307.00	1123.46
308.00	1055.58
309.00	1146.86
310.00	1121.12
311.00	1100.05
312.00	1102.39
313.00	1172.61
314.00	1032.18
315.00	1050.90
316.00	1135.16
317.00	1153.88
318.00	1086.01
319.00	1064.94
320.00	1116.44
321.00	1048.56
322.00	1107.07
323.00	1151.54
324.00	1076.65
325.00	1118.78
326.00	1104.73
327.00	1118.78
328.00	1111.75
329.00	1057.92
330.00	1034.52
331.00	1057.92
332.00	1097.71
333.00	1088.35
334.00	1039.20
335.00	1088.35
336.00	1015.79
337.00	1109.41
338.00	1097.71
339.00	1076.65
340.00	1088.35
341.00	1088.35
342.00	1125.80
343.00	1144.52
344.00	1121.12
345.00	1095.37
346.00	1100.05
347.00	1188.99
348.00	1357.51
349.00	1591.56
350.00	1717.95
351.00	1671.14
352.00	1643.06
353.00	1509.65
354.00	1394.96
355.00	1263.89
356.00	1179.63
357.00	1149.20
358.00	1139.84
359.00	1156.22
360.00	1102.39
361.00	1069.62
362.00	1111.75
363.00	1095.37
364.00	1062.60
365.00	1046.22
366.00	1128.14
367.00	1095.37
368.00	1149.20
369.00	1142.18
370.00	1160.91
371.00	1057.92
372.00	1048.56
373.00	1074.31
374.00	1020.47
375.00	990.05
376.00	1083.67
377.00	1193.67
378.00	1137.50
379.00	1093.03
380.00	1083.67
381.00	1041.54
382.00	1064.94
383.00	1165.59
384.00	1153.88
385.00	1153.88
386.00	1130.48
387.00	1137.50
388.00	1118.78
389.00	1121.12
390.00	1109.41
391.00	1163.25
392.00	1097.71
393.00	1104.73
394.00	1102.39
395.00	1116.44
396.00	1111.75
397.00	1097.71
398.00	1177.29
399.00	1004.09
400.00	1111.75
401.00	1116.44
402.00	1095.37
403.00	1135.16
404.00	1128.14
405.00	1102.39
406.00	1142.18
407.00	1121.12
408.00	1181.97
409.00	1118.78
410.00	1090.69
411.00	1041.54
412.00	1114.10
413.00	1156.22
414.00	1095.37
415.00	1083.67
416.00	1137.50
417.00	1114.10
418.00	1088.35
419.00	1109.41
420.00	1104.73
421.00	1041.54
422.00	1104.73
423.00	1104.73
424.00	1163.25
425.00	1100.05
426.00	1142.18
427.00	1188.99
428.00	1107.07
429.00	1109.41
430.00	1123.46
431.00	1149.20
432.00	1123.46
433.00	1107.07
434.00	1142.18
435.00	1193.67
436.00	1078.99
437.00	1125.80
438.00	1130.48
439.00	1090.69
440.00	1170.27
441.00	1167.93
442.00	1055.58
443.00	1207.72
444.00	1111.75
445.00	1067.28
446.00	1104.73
447.00	1142.18
448.00	1121.12
449.00	1062.60
450.00	1093.03
451.00	1170.27
452.00	1095.37
453.00	1135.16
454.00	1137.50
455.00	1118.78
456.00	1076.65
457.00	1102.39
458.00	1123.46
459.00	1090.69
460.00	1069.62
461.00	1055.58
462.00	1114.10
463.00	1181.97
464.00	1144.52
465.00	1123.46
466.00	1097.71
467.00	1137.50
468.00	1109.41
469.00	1149.20
470.00	1135.16
471.00	1118.78
472.00	1111.75
473.00	1163.25
474.00	1156.22
475.00	1179.63
476.00	1118.78
477.00	1076.65
478.00	1107.07
479.00	1160.91
480.00	1132.82
481.00	1198.35
482.00	1156.22
483.00	1139.84
484.00	1114.10
485.00	1144.52
486.00	1158.57
487.00	1121.12
488.00	1104.73
489.00	1179.63
490.00	1100.05
491.00	1149.20
492.00	1132.82
493.00	1142.18
494.00	1118.78
495.00	1083.67
496.00	1121.12
497.00	1076.65
498.00	1125.80
499.00	1118.78
500.00	1146.86
501.00	1172.61
502.00	1158.57
503.00	1095.37
504.00	1102.39
505.00	1111.75
506.00	1114.10
507.00	1135.16
508.00	1043.88
509.00	1114.10
510.00	1177.29
511.00	1172.61
512.00	1116.44
513.00	1074.31
514.00	1137.50
515.00	1130.48
516.00	1046.22
517.00	1193.67
518.00	1125.80
519.00	1142.18
520.00	1060.26
521.00	1121.12
522.00	1081.33
523.00	1090.69
524.00	1130.48
525.00	1069.62
526.00	1130.48
527.00	1146.86
528.00	1118.78
529.00	1109.41
530.00	1069.62
531.00	1118.78
532.00	1132.82
533.00	1137.50
534.00	1135.16
535.00	1111.75
536.00	1053.24
537.00	1121.12
538.00	1170.27
539.00	1107.07
540.00	1078.99
541.00	1081.33
542.00	1132.82
543.00	1132.82
544.00	1163.25
545.00	1090.69
546.00	1158.57
547.00	1114.10
548.00	1109.41
549.00	1163.25
550.00	1071.97
551.00	1142.18
552.00	1160.91
553.00	1153.88
554.00	1132.82
555.00	1172.61
556.00	1118.78
557.00	1165.59
558.00	1156.22
559.00	1191.33
560.00	1100.05
561.00	1114.10
562.00	1114.10
563.00	1116.44
564.00	1125.80
565.00	1109.41
566.00	1144.52
567.00	1174.95
568.00	1130.48
569.00	1078.99
570.00	1156.22
571.00	1165.59
572.00	1158.57
573.00	1083.67
574.00	1093.03
575.00	1170.27
576.00	1163.25
577.00	1086.01
578.00	1095.37
579.00	1076.65
580.00	1137.50
581.00	1125.80
582.00	1167.93
583.00	1104.73
584.00	1116.44
585.00	1123.46
586.00	1200.69
587.00	1081.33
588.00	1086.01
589.00	1088.35
590.00	1151.54
591.00	1207.72
592.00	1146.86
593.00	1137.50
594.00	1135.16
595.00	1153.88
596.00	1118.78
597.00	1130.48
598.00	1167.93
599.00	1153.88
600.00	1198.35
601.00	1158.57
602.00	1163.25
603.00	1125.80
604.00	1160.91
605.00	1088.35
606.00	1130.48
607.00	1179.63
608.00	1163.25
609.00	1135.16
610.00	1116.44
611.00	1090.69
612.00	1163.25
613.00	1151.54
614.00	1210.06
615.00	1146.86
616.00	1287.29
617.00	1179.63
618.00	1139.84
619.00	1132.82
620.00	1181.97
621.00	1149.20
622.00	1144.52
623.00	1184.31
624.00	1210.06
625.00	1228.78
626.00	1235.80
627.00	1210.06
628.00	1224.10
629.00	1249.85
630.00	1357.51
631.00	1481.56
632.00	1942.64
633.00	3274.41
634.00	5572.82
635.00	7789.30
636.00	9062.55
637.00	9135.11
638.00	8051.44
639.00	5902.83
640.00	3719.11
641.00	2445.86
642.00	1736.68
643.00	1446.45
644.00	1259.21
645.00	1266.23
646.00	1203.04
647.00	1249.85
648.00	1144.52
649.00	1151.54
650.00	1221.76
651.00	1144.52
652.00	1160.91
653.00	1107.07
654.00	1238.14
655.00	1224.10
656.00	1172.61
657.00	1149.20
658.00	1196.01
659.00	1196.01
660.00	1170.27
661.00	1186.65
662.00	1235.80
663.00	1235.80
664.00	1109.41
665.00	1184.31
666.00	1231.12
667.00	1174.95
668.00	1179.63
669.00	1184.31
670.00	1163.25
671.00	1149.20
672.00	1205.38
673.00	1214.74
674.00	1231.12
675.00	1217.08
676.00	1193.67
677.00	1200.69
678.00	1177.29
679.00	1207.72
680.00	1270.91
681.00	1224.10
682.00	1188.99
683.00	1224.10
684.00	1207.72
685.00	1165.59
686.00	1163.25
687.00	1179.63
688.00	1177.29
689.00	1107.07
690.00	1177.29
691.00	1221.76
692.00	1188.99
693.00	1149.20
694.00	1186.65
695.00	1200.69
696.00	1221.76
697.00	1104.73
698.00	1177.29
699.00	1188.99
700.00	1193.67
701.00	1245.16
702.00	1273.25
703.00	1266.23
704.00	1151.54
705.00	1170.27
706.00	1177.29
707.00	1247.51
708.00	1203.04
709.00	1160.91
710.00	1167.93
711.00	1170.27
712.00	1228.78
713.00	1174.95
714.00	1181.97
715.00	1205.38
716.00	1139.84
717.00	1149.20
718.00	1083.67
719.00	1153.88
720.00	1050.90
721.00	1191.33
722.00	1114.10
723.00	1158.57
724.00	1135.16
725.00	1193.67
726.00	1118.78
727.00	1191.33
728.00	1212.40
729.00	1203.04
730.00	1163.25
731.00	1256.87
732.00	1224.10
733.00	1160.91
734.00	1165.59
735.00	1188.99
736.00	1156.22
737.00	1090.69
738.00	1165.59
739.00	1226.44
740.00	1210.06
741.00	1114.10
742.00	1151.54
743.00	1217.08
744.00	1214.74
745.00	1174.95
746.00	1184.31
747.00	1214.74
748.00	1167.93
749.00	1153.88
750.00	1174.95
751.00	1158.57
752.00	1177.29
753.00	1238.14
754.00	1191.33
755.00	1179.63
756.00	1210.06
757.00	1149.20
758.00	1160.91
759.00	1118.78
760.00	1191.33
761.00	1135.16
762.00	1172.61
763.00	1146.86
764.00	1163.25
765.00	1193.67
766.00	1212.40
767.00	1252.19
768.00	1177.29
769.00	1200.69
770.00	1177.29
771.00	1193.67
772.00	1212.40
773.00	1212.40
774.00	1268.57
775.00	1179.63
776.00	1235.80
777.00	1238.14
778.00	1219.42
779.00	1153.88
780.00	1130.48
781.00	1228.78
782.00	1174.95
783.00	1245.16
784.00	1289.64
785.00	1181.97
786.00	1205.38
787.00	1149.20
788.00	1184.31
789.00	1156.22
790.00	1158.57
791.00	1207.72
792.00	1221.76
793.00	1196.01
794.00	1207.72
795.00	1146.86
796.00	1191.33
797.00	1186.65
798.00	1156.22
799.00	1221.76
800.00	1184.31
801.00	1128.14
802.00	1172.61
803.00	1139.84
804.00	1156.22
805.00	1205.38
806.00	1118.78
807.00	1181.97
808.00	1254.53
809.00	1242.82
810.00	1193.67
811.00	1177.29
812.00	1090.69
813.00	1214.74
814.00	1207.72
815.00	1158.57
816.00	1245.16
817.00	1174.95
818.00	1170.27
819.00	1160.91
820.00	1158.57
821.00	1139.84
822.00	1219.42
823.00	1163.25
824.00	1179.63
825.00	1174.95
826.00	1144.52
827.00	1240.48
828.00	1233.46
829.00	1224.10
830.00	1207.72
831.00	1217.08
832.00	1191.33
833.00	1186.65
834.00	1179.63
835.00	1186.65
836.00	1165.59
837.00	1217.08
838.00	1200.69
839.00	1151.54
840.00	1240.48
841.00	1137.50
842.00	1226.44
843.00	1137.50
844.00	1198.35
845.00	1219.42
846.00	1214.74
847.00	1144.52
848.00	1219.42
849.00	1139.84
850.00	1167.93
851.00	1156.22
852.00	1210.06
853.00	1198.35
854.00	1153.88
855.00	1186.65
856.00	1198.35
857.00	1207.72
858.00	1212.40
859.00	1188.99
860.00	1174.95
861.00	1200.69
862.00	1219.42
863.00	1228.78
864.00	1242.82
865.00	1181.97
866.00	1219.42
867.00	1205.38
868.00	1203.04
869.00	1160.91
870.00	1275.59
871.00	1210.06
872.00	1238.14
873.00	1163.25
874.00	1144.52
875.00	1191.33
876.00	1167.93
877.00	1167.93
878.00	1191.33
879.00	1256.87
880.00	1146.86
881.00	1254.53
882.00	1270.91
883.00	1160.91
884.00	1205.38
885.00	1167.93
886.00	1181.97
887.00	1210.06
888.00	1247.51
889.00	1153.88
890.00	1235.80
891.00	1247.51
892.00	1181.97
893.00	1214.74
894.00	1245.16
895.00	1142.18
896.00	1203.04
897.00	1212.40
898.00	1259.21
899.00	1172.61
900.00	1188.99
901.00	1181.97
902.00	1160.91
903.00	1247.51
904.00	1282.61
905.00	1181.97
906.00	1263.89
907.00	1177.29
908.00	1205.38
909.00	1179.63
910.00	1614.97
911.00	1261.55
912.00	1184.31
913.00	1163.25
914.00	1139.84
915.00	1231.12
916.00	1238.14
917.00	1165.59
918.00	1226.44
919.00	1191.33
920.00	1233.46
921.00	1174.95
922.00	1205.38
923.00	1170.27
924.00	1170.27
925.00	1212.40
926.00	1188.99
927.00	1165.59
928.00	1214.74
929.00	1177.29
930.00	1210.06
931.00	1205.38
932.00	1268.57
933.00	1196.01
934.00	1196.01
935.00	1191.33
936.00	1196.01
937.00	1132.82
938.00	1163.25
939.00	1181.97
940.00	1191.33
941.00	1242.82
942.00	1212.40
943.00	1196.01
944.00	1221.76
945.00	1188.99
946.00	1174.95
947.00	1198.35
948.00	1102.39
949.00	1172.61
950.00	1144.52
951.00	1188.99
952.00	1118.78
953.00	1270.91
954.00	1181.97
955.00	1214.74
956.00	1252.19
957.00	1231.12
958.00	1231.12
959.00	1210.06
960.00	1153.88
961.00	1177.29
962.00	1158.57
963.00	1179.63
964.00	1191.33
965.00	1184.31
966.00	1198.35
967.00	1252.19
968.00	1156.22
969.00	1207.72
970.00	1125.80
971.00	1151.54
972.00	1078.99
973.00	1226.44
974.00	1153.88
975.00	1149.20
976.00	1212.40
977.00	1144.52
978.00	1125.80
979.00	1132.82
980.00	1181.97
981.00	1247.51
982.00	1193.67
983.00	1238.14
984.00	1296.66
985.00	1170.27
986.00	1205.38
987.00	1221.76
988.00	1156.22
989.00	1238.14
990.00	1210.06
991.00	1238.14
992.00	1184.31
993.00	1163.25
994.00	1158.57
995.00	1165.59
996.00	1174.95
997.00	1214.74
998.00	1144.52
999.00	1196.01
1000.00	1224.10
1001.00	1160.91
1002.00	1172.61
1003.00	1219.42
1004.00	1196.01
1005.00	1149.20
1006.00	1191.33
1007.00	1242.82
1008.00	1205.38
1009.00	1198.35
1010.00	1261.55
1011.00	1242.82
1012.00	1167.93
1013.00	1238.14
1014.00	1181.97
1015.00	1165.59
1016.00	1212.40
1017.00	1275.59
1018.00	1153.88
1019.00	1188.99
1020.00	1151.54
1021.00	1207.72
1022.00	1146.86
1023.00	1104.73
1024.00	1240.48
1025.00	1172.61
1026.00	1116.44
1027.00	1149.20
1028.00	1270.91
1029.00	1249.85
1030.00	1170.27
1031.00	1205.38
1032.00	1245.16
1033.00	1247.51
1034.00	1123.46
1035.00	1170.27
1036.00	1231.12
1037.00	1263.89
1038.00	1177.29
1039.00	1277.93
1040.00	1167.93
1041.00	1245.16
1042.00	1165.59
1043.00	1270.91
1044.00	1221.76
1045.00	1167.93
1046.00	1212.40
1047.00	1210.06
1048.00	1219.42
1049.00	1153.88
1050.00	1144.52
1051.00	1130.48
1052.00	1238.14
1053.00	1156.22
1054.00	1254.53
1055.00	1228.78
1056.00	1205.38
1057.00	1165.59
1058.00	1177.29
1059.00	1160.91
1060.00	1266.23
1061.00	1125.80
1062.00	1149.20
1063.00	1196.01
1064.00	1270.91
1065.00	1219.42
1066.00	1132.82
1067.00	1151.54
1068.00	1181.97
1069.00	1261.55
1070.00	1233.46
1071.00	1191.33
1072.00	1191.33
1073.00	1212.40
1074.00	1123.46
1075.00	1207.72
1076.00	1193.67
1077.00	1158.57
1078.00	1177.29
1079.00	1205.38
1080.00	1203.04
1081.00	1203.04
1082.00	1156.22
1083.00	1228.78
1084.00	1095.37
1085.00	1144.52
1086.00	1177.29
1087.00	1235.80
1088.00	1217.08
1089.00	1149.20
1090.00	1132.82
1091.00	1177.29
1092.00	1205.38
1093.00	1184.31
1094.00	1146.86
1095.00	1200.69
1096.00	1284.95
1097.00	1188.99
1098.00	1200.69
1099.00	1184.31
1100.00	1205.38
1101.00	1196.01
1102.00	1217.08
1103.00	1146.86
1104.00	1179.63
1105.00	1165.59
1106.00	1221.76
1107.00	1219.42
1108.00	1221.76
1109.00	1184.31
1110.00	1238.14
1111.00	1240.48
1112.00	1203.04
1113.00	1247.51
1114.00	1135.16
1115.00	1284.95
1116.00	1235.80
1117.00	1247.51
1118.00	1149.20
1119.00	1240.48
1120.00	1231.12
1121.00	1294.32
1122.00	1179.63
1123.00	1268.57
1124.00	1128.14
1125.00	1219.42
1126.00	1179.63
1127.00	1200.69
1128.00	1242.82
1129.00	1238.14
1130.00	1191.33
1131.00	1238.14
1132.00	1167.93
1133.00	1221.76
1134.00	1205.38
1135.00	1287.29
1136.00	1170.27
1137.00	1252.19
1138.00	1224.10
1139.00	1193.67
1140.00	1181.97
1141.00	1179.63
1142.00	1188.99
1143.00	1240.48
1144.00	1186.65
1145.00	1256.87
1146.00	1191.33
1147.00	1245.16
1148.00	1217.08
1149.00	1242.82
1150.00	1205.38
1151.00	1238.14
1152.00	1259.21
1153.00	1198.35
1154.00	1177.29
1155.00	1196.01
1156.00	1238.14
1157.00	1221.76
1158.00	1151.54
1159.00	1242.82
1160.00	1233.46
1161.00	1221.76
1162.00	1240.48
1163.00	1191.33
1164.00	1254.53
1165.00	1224.10
1166.00	1224.10
1167.00	1184.31
1168.00	1198.35
1169.00	1114.10
1170.00	1224.10
1171.00	1144.52
1172.00	1231.12
1173.00	1226.44
1174.00	1259.21
1175.00	1156.22
1176.00	1308.36
1177.00	1240.48
1178.00	1200.69
1179.00	1165.59
1180.00	1238.14
1181.00	1261.55
1182.00	1247.51
1183.00	1233.46
1184.00	1301.34
1185.00	1219.42
1186.00	1299.00
1187.00	1247.51
1188.00	1139.84
1189.00	1163.25
1190.00	1275.59
1191.00	1263.89
1192.00	1256.87
1193.00	1259.21
1194.00	1287.29
1195.00	1284.95
1196.00	1198.35
1197.00	1210.06
1198.00	1238.14
1199.00	1289.64
1200.00	1350.49
1201.00	1252.19
1202.00	1284.95
1203.00	1212.40
1204.00	1273.25
1205.00	1296.66
1206.00	1310.70
1207.00	1247.51
1208.00	1233.46
1209.00	1284.95
1210.00	1224.10
1211.00	1254.53
1212.00	1242.82
1213.00	1261.55
1214.00	1261.55
1215.00	1261.55
1216.00	1198.35
1217.00	1224.10
1218.00	1203.04
1219.00	1259.21
1220.00	1315.38
1221.00	1245.16
1222.00	1188.99
1223.00	1289.64
1224.00	1299.00
1225.00	1303.68
1226.00	1245.16
1227.00	1160.91
1228.00	1193.67
1229.00	1207.72
1230.00	1172.61
1231.00	1214.74
1232.00	1256.87
1233.00	1249.85
1234.00	1207.72
1235.00	1228.78
1236.00	1219.42
1237.00	1310.70
1238.00	1308.36
1239.00	1221.76
1240.00	1240.48
1241.00	1287.29
1242.00	1249.85
1243.00	1280.27
1244.00	1301.34
1245.00	1299.00
1246.00	1289.64
1247.00	1238.14
1248.00	1277.93
1249.00	1207.72
1250.00	1263.89
1251.00	1238.14
1252.00	1296.66
1253.00	1301.34
1254.00	1193.67
1255.00	1172.61
1256.00	1205.38
1257.00	1256.87
1258.00	1261.55
1259.00	1247.51
1260.00	1224.10
1261.00	1238.14
1262.00	1282.61
1263.00	1207.72
1264.00	1219.42
1265.00	1196.01
1266.00	1299.00
1267.00	1242.82
1268.00	1280.27
1269.00	1338.79
1270.00	1266.23
1271.00	1303.68
1272.00	1203.04
1273.00	1329.42
1274.00	1299.00
1275.00	1249.85
1276.00	1240.48
1277.00	1291.98
1278.00	1235.80
1279.00	1275.59
1280.00	1263.89
1281.00	1350.49
1282.00	1275.59
1283.00	1299.00
1284.00	1212.40
1285.00	1259.21
1286.00	1231.12
1287.00	1238.14
1288.00	1270.91
1289.00	1282.61
1290.00	1289.64
1291.00	1303.68
1292.00	1224.10
1293.00	1240.48
1294.00	1259.21
1295.00	1266.23
1296.00	1273.25
1297.00	1214.74
1298.00	1261.55
1299.00	1242.82
1300.00	1287.29
1301.00	1306.02
1302.00	1306.02
1303.00	1235.80
1304.00	1289.64
1305.00	1324.74
1306.00	1259.21
1307.00	1291.98
1308.00	1238.14
1309.00	1252.19
1310.00	1275.59
1311.00	1256.87
1312.00	1249.85
1313.00	1233.46
1314.00	1299.00
1315.00	1231.12
1316.00	1249.85
1317.00	1282.61
1318.00	1205.38
1319.00	1327.08
1320.00	1306.02
1321.00	1261.55
1322.00	1226.44
1323.00	1226.44
1324.00	1240.48
1325.00	1315.38
1326.00	1245.16
1327.00	1245.16
1328.00	1296.66
1329.00	1245.16
1330.00	1280.27
1331.00	1324.74
1332.00	1268.57
1333.00	1270.91
1334.00	1329.42
1335.00	1277.93
1336.00	1397.30
1337.00	1371.55
1338.00	1294.32
1339.00	1228.78
1340.00	1245.16
1341.00	1233.46
1342.00	1254.53
1343.00	1212.40
1344.00	1184.31
1345.00	1287.29
1346.00	1228.78
1347.00	1313.04
1348.00	1210.06
1349.00	1256.87
1350.00	1350.49
1351.00	1334.11
1352.00	1373.89
1353.00	1266.23
1354.00	1284.95
1355.00	1205.38
1356.00	1291.98
1357.00	1317.72
1358.00	1259.21
1359.00	1327.08
1360.00	1268.57
1361.00	1207.72
1362.00	1334.11
1363.00	1256.87
1364.00	1153.88
1365.00	1252.19
1366.00	1296.66
1367.00	1249.85
1368.00	1231.12
1369.00	1287.29
1370.00	1284.95
1371.00	1247.51
1372.00	1289.64
1373.00	1320.06
1374.00	1268.57
1375.00	1308.36
1376.00	1308.36
1377.00	1289.64
1378.00	1210.06
1379.00	1221.76
1380.00	1238.14
1381.00	1310.70
1382.00	1212.40
1383.00	1228.78
1384.00	1254.53
1385.00	1259.21
1386.00	1226.44
1387.00	1268.57
1388.00	1231.12
1389.00	1268.57
1390.00	1310.70
1391.00	1252.19
1392.00	1188.99
1393.00	1242.82
1394.00	1273.25
1395.00	1235.80
1396.00	1284.95
1397.00	1256.87
1398.00	1299.00
1399.00	1291.98
1400.00	1256.87
1401.00	1277.93
1402.00	1320.06
1403.00	1240.48
1404.00	1317.72
1405.00	1287.29
1406.00	1291.98
1407.00	1240.48
1408.00	1273.25
1409.00	1273.25
1410.00	1219.42
1411.00	1198.35
1412.00	1238.14
1413.00	1301.34
1414.00	1181.97
1415.00	1184.31
1416.00	1240.48
1417.00	1224.10
1418.00	1177.29
1419.00	1217.08
1420.00	1221.76
1421.00	1207.72
1422.00	1219.42
1423.00	1270.91
1424.00	1191.33
1425.00	1252.19
1426.00	1245.16
1427.00	1242.82
1428.00	1214.74
1429.00	1193.67
1430.00	1200.69
1431.00	1261.55
1432.00	1210.06
1433.00	1224.10
1434.00	1224.10
1435.00	1261.55
1436.00	1324.74
1437.00	1224.10
1438.00	1254.53
1439.00	1219.42
1440.00	1207.72
1441.00	1217.08
1442.00	1242.82
1443.00	1301.34
1444.00	1221.76
1445.00	1238.14
1446.00	1259.21
1447.00	1228.78
1448.00	1270.91
1449.00	1245.16
1450.00	1263.89
1451.00	1210.06
1452.00	1228.78
1453.00	1242.82
1454.00	1296.66
1455.00	1217.08
1456.00	1233.46
1457.00	1217.08
1458.00	1329.42
1459.00	1261.55
1460.00	1174.95
1461.00	1240.48
1462.00	1256.87
1463.00	1252.19
1464.00	1188.99
1465.00	1114.10
1466.00	1193.67
1467.00	1217.08
1468.00	1252.19
1469.00	1207.72
1470.00	1252.19
1471.00	1160.91
1472.00	1261.55
1473.00	1294.32
1474.00	1184.31
1475.00	1172.61
1476.00	1149.20
1477.00	1233.46
1478.00	1181.97
1479.00	1256.87
1480.00	1231.12
1481.00	1196.01
1482.00	1198.35
1483.00	1226.44
1484.00	1212.40
1485.00	1158.57
1486.00	1207.72
1487.00	1203.04
1488.00	1212.40
1489.00	1212.40
1490.00	1212.40
1491.00	1137.50
1492.00	1233.46
1493.00	1214.74
1494.00	1179.63
1495.00	1177.29
1496.00	1181.97
1497.00	1231.12
1498.00	1231.12
1499.00	1240.48
1500.00	1107.07
1501.00	1184.31
1502.00	1289.64
1503.00	1233.46
1504.00	1160.91
1505.00	1233.46
1506.00	1153.88
1507.00	1231.12
1508.00	1212.40
1509.00	1310.70
1510.00	1263.89
1511.00	1214.74
1512.00	1203.04
1513.00	1179.63
1514.00	1191.33
1515.00	1174.95
1516.00	1224.10
1517.00	1207.72
1518.00	1214.74
1519.00	1221.76
1520.00	1196.01
1521.00	1139.84
1522.00	1205.38
1523.00	1256.87
1524.00	1198.35
1525.00	1224.10
1526.00	1219.42
1527.00	1287.29
1528.00	1186.65
1529.00	1174.95
1530.00	1196.01
1531.00	1177.29
1532.00	1191.33
1533.00	1135.16
1534.00	1242.82
1535.00	1282.61
1536.00	1174.95
1537.00	1221.76
1538.00	1179.63
1539.00	1170.27
1540.00	1158.57
1541.00	1235.80
1542.00	1186.65
1543.00	1238.14
1544.00	1191.33
1545.00	1203.04
1546.00	1259.21
1547.00	1256.87
1548.00	1261.55
1549.00	1205.38
1550.00	1242.82
1551.00	1261.55
1552.00	1249.85
1553.00	1149.20
1554.00	1170.27
1555.00	1198.35
1556.00	1212.40
1557.00	1196.01
1558.00	1203.04
1559.00	1240.48
1560.00	1254.53
1561.00	1247.51
1562.00	1217.08
1563.00	1245.16
1564.00	1205.38
1565.00	1273.25
1566.00	1210.06
1567.00	1107.07
1568.00	1207.72
1569.00	1291.98
1570.00	1156.22
1571.00	1327.08
1572.00	1219.42
1573.00	1212.40
1574.00	1280.27
1575.00	1277.93
1576.00	1308.36
1577.00	1287.29
1578.00	1320.06
1579.00	1207.72
1580.00	1221.76
1581.00	1245.16
1582.00	1313.04
1583.00	1156.22
1584.00	1245.16
1585.00	1198.35
1586.00	1217.08
1587.00	1235.80
1588.00	1146.86
1589.00	1142.18
1590.00	1238.14
1591.00	1266.23
1592.00	1238.14
1593.00	1181.97
1594.00	1158.57
1595.00	1214.74
1596.00	1153.88
1597.00	1256.87
1598.00	1078.99
1599.00	1254.53
1600.00	1238.14
1601.00	1259.21
1602.00	1174.95
1603.00	1196.01
1604.00	1245.16
1605.00	1214.74
1606.00	1240.48
1607.00	1188.99
1608.00	1116.44
1609.00	1188.99
1610.00	1214.74
1611.00	1188.99
1612.00	1214.74
1613.00	1184.31
1614.00	1203.04
1615.00	1266.23
1616.00	1167.93
1617.00	1233.46
1618.00	1198.35
1619.00	1116.44
1620.00	1221.76
1621.00	1226.44
1622.00	1224.10
1623.00	1231.12
1624.00	1158.57
1625.00	1247.51
1626.00	1315.38
1627.00	1231.12
1628.00	1249.85
1629.00	1217.08
1630.00	1270.91
1631.00	1313.04
1632.00	1275.59
1633.00	1282.61
1634.00	1254.53
1635.00	1277.93
1636.00	1280.27
1637.00	1284.95
1638.00	1282.61
1639.00	1364.53
1640.00	1341.13
1641.00	1357.51
1642.00	1296.66
1643.00	1240.48
1644.00	1287.29
1645.00	1294.32
1646.00	1406.66
1647.00	1303.68
1648.00	1348.15
1649.00	1348.15
1650.00	1336.45
1651.00	1378.58
1652.00	1313.04
1653.00	1336.45
1654.00	1411.34
1655.00	1348.15
1656.00	1341.13
1657.00	1352.83
1658.00	1369.21
1659.00	1376.24
1660.00	1350.49
1661.00	1317.72
1662.00	1336.45
1663.00	1394.96
1664.00	1446.45
1665.00	1434.75
1666.00	1469.86
1667.00	1439.43
1668.00	1451.13
1669.00	1465.18
1670.00	1479.22
1671.00	1472.20
1672.00	1467.52
1673.00	1544.75
1674.00	1521.35
1675.00	1535.39
1676.00	1584.54
1677.00	1636.03
1678.00	1631.35
1679.00	1682.85
1680.00	1778.81
1681.00	1998.82
1682.00	1989.46
1683.00	2487.99
1684.00	5476.85
1685.00	12910.40
1686.00	23662.82
1687.00	33757.55
1688.00	47166.48
1689.00	55774.97
1690.00	60046.44
1691.00	61862.70
1692.00	60741.58
1693.00	53071.65
1694.00	36613.00
1695.00	22410.63
1696.00	13750.65
1697.00	8688.07
1698.00	5252.16
1699.00	3356.33
1700.00	2530.12
1701.00	2010.52
1702.00	1764.76
1703.00	1739.02
1704.00	1652.42
1705.00	1516.67
1706.00	1486.24
1707.00	1472.20
1708.00	1446.45
1709.00	1411.34
1710.00	1474.54
1711.00	1451.13
1712.00	1446.45
1713.00	1425.39
1714.00	1376.24
1715.00	1399.64
1716.00	1380.92
1717.00	1406.66
1718.00	1401.98
1719.00	1394.96
1720.00	1458.15
1721.00	1291.98
1722.00	1315.38
1723.00	1350.49
1724.00	1338.79
1725.00	1366.87
1726.00	1362.19
1727.00	1350.49
1728.00	1303.68
1729.00	1387.94
1730.00	1359.85
1731.00	1317.72
1732.00	1308.36
1733.00	1310.70
1734.00	1331.76
1735.00	1439.43
1736.00	1348.15
1737.00	1341.13
1738.00	1338.79
1739.00	1390.28
1740.00	1306.02
1741.00	1376.24
1742.00	1434.75
1743.00	1434.75
1744.00	1383.26
1745.00	1357.51
1746.00	1359.85
1747.00	1310.70
1748.00	1313.04
1749.00	1399.64
1750.00	1289.64
1751.00	1355.17
1752.00	1320.06
1753.00	1401.98
1754.00	1277.93
1755.00	1306.02
1756.00	1352.83
1757.00	1313.04
1758.00	1289.64
1759.00	1327.08
1760.00	1268.57
1761.00	1308.36
1762.00	1261.55
1763.00	1247.51
1764.00	1210.06
1765.00	1219.42
1766.00	1317.72
1767.00	1259.21
1768.00	1228.78
1769.00	1291.98
1770.00	1254.53
1771.00	1301.34
1772.00	1289.64
1773.00	1188.99
1774.00	1221.76
1775.00	1188.99
1776.00	1247.51
1777.00	1144.52
1778.00	1163.25
1779.00	1217.08
1780.00	1181.97
1781.00	1228.78
1782.00	1181.97
1783.00	1165.59
1784.00	1210.06
1785.00	1132.82
1786.00	1165.59
1787.00	1193.67
1788.00	1193.67
1789.00	1062.60
1790.00	1114.10
1791.00	1200.69
1792.00	1165.59
1793.00	1156.22
1794.00	1153.88
1795.00	1177.29
1796.00	1160.91
1797.00	1146.86
1798.00	1095.37
1799.00	1137.50
1800.00	1163.25
1801.00	1153.88
1802.00	1142.18
1803.00	1198.35
1804.00	1207.72
1805.00	1104.73
1806.00	1146.86
1807.00	1111.75
1808.00	1083.67
1809.00	1123.46
1810.00	1088.35
1811.00	1158.57
1812.00	1184.31
1813.00	1118.78
1814.00	1149.20
1815.00	1144.52
1816.00	1104.73
1817.00	1181.97
1818.00	1123.46
1819.00	1158.57
1820.00	1142.18
1821.00	1172.61
1822.00	1128.14
1823.00	1210.06
1824.00	1238.14
1825.00	1114.10
1826.00	1128.14
1827.00	1174.95
1828.00	1174.95
1829.00	1149.20
1830.00	1163.25
1831.00	1177.29
1832.00	1149.20
1833.00	1125.80
1834.00	1142.18
1835.00	1071.97
1836.00	1076.65
1837.00	1146.86
1838.00	1125.80
1839.00	1146.86
1840.00	1160.91
1841.00	1086.01
1842.00	1137.50
1843.00	1069.62
1844.00	1107.07
1845.00	1165.59
1846.00	1121.12
1847.00	1074.31
1848.00	1116.44
1849.00	1156.22
1850.00	1095.37
1851.00	1132.82
1852.00	1193.67
1853.00	1186.65
1854.00	1116.44
1855.00	1149.20
1856.00	1130.48
1857.00	1104.73
1858.00	1170.27
1859.00	1128.14
1860.00	1116.44
1861.00	1151.54
1862.00	1184.31
1863.00	1062.60
1864.00	1144.52
1865.00	1153.88
1866.00	1093.03
1867.00	1163.25
1868.00	1123.46
1869.00	1114.10
1870.00	1107.07
1871.00	1090.69
1872.00	1144.52
1873.00	1116.44
1874.00	1128.14
1875.00	1107.07
1876.00	1100.05
1877.00	1095.37
1878.00	1153.88
1879.00	1212.40
1880.00	1184.31
1881.00	1121.12
1882.00	1116.44
1883.00	1125.80
1884.00	1184.31
1885.00	1118.78
1886.00	1088.35
1887.00	1107.07
1888.00	1093.03
1889.00	1121.12
1890.00	1132.82
1891.00	1050.90
1892.00	1125.80
1893.00	1174.95
1894.00	1071.97
1895.00	1086.01
1896.00	1210.06
1897.00	1174.95
1898.00	1111.75
1899.00	1064.94
1900.00	1139.84
1901.00	1111.75
1902.00	1086.01
1903.00	1118.78
1904.00	1086.01
1905.00	1130.48
1906.00	1097.71
1907.00	1144.52
1908.00	1048.56
1909.00	1090.69
1910.00	1093.03
1911.00	1076.65
1912.00	1076.65
1913.00	1125.80
1914.00	1107.07
1915.00	1048.56
1916.00	1170.27
1917.00	1121.12
1918.00	1158.57
1919.00	1109.41
1920.00	1156.22
1921.00	1153.88
1922.00	1095.37
1923.00	1165.59
1924.00	1107.07
1925.00	1100.05
1926.00	1167.93
1927.00	1104.73
1928.00	1109.41
1929.00	1048.56
1930.00	1100.05
1931.00	1139.84
1932.00	1046.22
1933.00	1062.60
1934.00	1125.80
1935.00	1083.67
1936.00	1125.80
1937.00	1057.92
1938.00	1100.05
1939.00	1104.73
1940.00	1018.13
1941.00	1062.60
1942.00	1104.73
1943.00	1022.81
1944.00	1097.71
1945.00	1046.22
1946.00	1074.31
1947.00	1139.84
1948.00	1179.63
1949.00	1032.18
1950.00	1158.57
1951.00	1139.84
1952.00	1116.44
1953.00	1125.80
1954.00	1076.65
1955.00	1055.58
1956.00	1125.80
1957.00	1121.12
1958.00	1097.71
1959.00	1076.65
1960.00	1088.35
1961.00	1095.37
1962.00	1086.01
1963.00	1057.92
1964.00	1032.18
1965.00	1071.97
1966.00	1107.07
1967.00	1090.69
1968.00	1111.75
1969.00	1123.46
1970.00	1111.75
1971.00	1043.88
1972.00	1149.20
1973.00	1088.35
1974.00	1095.37
1975.00	1125.80
1976.00	1086.01
1977.00	1144.52
1978.00	1132.82
1979.00	1078.99
1980.00	1146.86
1981.00	1198.35
1982.00	1060.26
1983.00	1095.37
1984.00	1097.71
1985.00	1121.12
1986.00	1095.37
1987.00	1102.39
1988.00	1128.14
1989.00	1142.18
1990.00	1069.62
1991.00	1064.94
1992.00	1090.69
1993.00	1118.78
1994.00	1102.39
1995.00	1111.75
1996.00	1102.39
1997.00	1093.03
1998.00	1055.58
1999.00	1144.52
2000.00	1095.37
2001.00	1139.84
2002.00	1090.69
2003.00	1128.14
2004.00	1053.24
2005.00	1093.03
2006.00	1142.18
2007.00	1132.82
2008.00	1153.88
2009.00	1083.67
2010.00	1048.56
2011.00	1111.75
2012.00	1174.95
2013.00	1071.97
2014.00	1109.41
2015.00	1083.67
2016.00	1100.05
2017.00	1137.50
2018.00	1125.80
2019.00	1135.16
2020.00	1104.73
2021.00	1109.41
2022.00	1142.18
2023.00	1128.14
2024.00	1118.78
2025.00	1198.35
2026.00	1095.37
2027.00	1015.79
2028.00	1032.18
2029.00	1027.50
2030.00	1109.41
2031.00	1111.75
2032.00	1100.05
2033.00	1067.28
2034.00	1135.16
2035.00	1081.33
2036.00	1114.10
2037.00	1076.65
2038.00	1123.46
2039.00	1158.57
2040.00	1043.88
2041.00	1146.86
2042.00	1104.73
2043.00	1018.13
2044.00	1100.05
2045.00	1114.10
2046.00	1081.33
2047.00	1027.50

