SpectraSuite Data File
++++++++++++++++++++++++++++++++++++
Date: Thu Oct 10 11:25:00 EDT 2019
User: surp
Dark Spectrum Present: No
Reference Spectrum Present: No
Number of Sampled Component Spectra: 1
Spectrometers: USB2+H05261
Integration Time (usec): 10000 (USB2+H05261)
Spectra Averaged: 1 (USB2+H05261)
Boxcar Smoothing: 0 (USB2+H05261)
Correct for Electrical Dark: No (USB2+H05261)
Strobe/Lamp Enabled: No (USB2+H05261)
Correct for Detector Non-linearity: No (USB2+H05261)
Correct for Stray Light: No (USB2+H05261)
Number of Pixels in Processed Spectrum: 2048
>>>>>Begin Processed Spectral Data<<<<<
0.00	1013.45
1.00	1013.45
2.00	1013.45
3.00	976.00
4.00	940.90
5.00	873.02
6.00	940.90
7.00	915.15
8.00	873.02
9.00	851.96
10.00	903.45
11.00	844.93
12.00	828.55
13.00	978.34
14.00	894.08
15.00	828.55
16.00	889.40
17.00	870.68
18.00	933.87
19.00	889.40
20.00	947.92
21.00	954.94
22.00	976.00
23.00	952.60
24.00	952.60
25.00	997.07
26.00	1006.43
27.00	952.60
28.00	973.66
29.00	978.34
30.00	1008.77
31.00	1029.84
32.00	1029.84
33.00	1027.50
34.00	1032.18
35.00	1041.54
36.00	1078.99
37.00	1060.26
38.00	1071.97
39.00	1081.33
40.00	985.37
41.00	1062.60
42.00	983.02
43.00	1004.09
44.00	1064.94
45.00	999.41
46.00	1027.50
47.00	1076.65
48.00	1097.71
49.00	1055.58
50.00	1036.86
51.00	1015.79
52.00	1107.07
53.00	1086.01
54.00	1088.35
55.00	1114.10
56.00	1076.65
57.00	1109.41
58.00	1086.01
59.00	1090.69
60.00	1081.33
61.00	1083.67
62.00	1069.62
63.00	1057.92
64.00	1015.79
65.00	1060.26
66.00	1104.73
67.00	1083.67
68.00	1057.92
69.00	1083.67
70.00	1086.01
71.00	1078.99
72.00	1100.05
73.00	1046.22
74.00	1015.79
75.00	1088.35
76.00	990.05
77.00	1067.28
78.00	1067.28
79.00	1107.07
80.00	1013.45
81.00	1039.20
82.00	1062.60
83.00	1032.18
84.00	1100.05
85.00	1060.26
86.00	1027.50
87.00	992.39
88.00	1057.92
89.00	994.73
90.00	1050.90
91.00	1083.67
92.00	1050.90
93.00	1109.41
94.00	1069.62
95.00	1104.73
96.00	1013.45
97.00	1020.47
98.00	1071.97
99.00	980.68
100.00	1039.20
101.00	1081.33
102.00	1060.26
103.00	1048.56
104.00	1013.45
105.00	1013.45
106.00	1027.50
107.00	1032.18
108.00	1074.31
109.00	1050.90
110.00	1015.79
111.00	1123.46
112.00	1043.88
113.00	1039.20
114.00	1095.37
115.00	1064.94
116.00	1083.67
117.00	1034.52
118.00	1036.86
119.00	1090.69
120.00	1060.26
121.00	1025.15
122.00	1088.35
123.00	1043.88
124.00	1036.86
125.00	1048.56
126.00	1041.54
127.00	1039.20
128.00	1048.56
129.00	1057.92
130.00	1097.71
131.00	1043.88
132.00	1078.99
133.00	1057.92
134.00	1118.78
135.00	1088.35
136.00	1067.28
137.00	1032.18
138.00	1032.18
139.00	1097.71
140.00	1067.28
141.00	1050.90
142.00	1097.71
143.00	990.05
144.00	1055.58
145.00	1074.31
146.00	990.05
147.00	1053.24
148.00	1078.99
149.00	1041.54
150.00	1078.99
151.00	1069.62
152.00	1095.37
153.00	1071.97
154.00	1088.35
155.00	1039.20
156.00	1050.90
157.00	1013.45
158.00	1142.18
159.00	1109.41
160.00	1076.65
161.00	1088.35
162.00	1081.33
163.00	1062.60
164.00	1057.92
165.00	994.73
166.00	1095.37
167.00	1013.45
168.00	964.30
169.00	1083.67
170.00	1107.07
171.00	1057.92
172.00	1100.05
173.00	1004.09
174.00	1046.22
175.00	1090.69
176.00	1050.90
177.00	1095.37
178.00	1093.03
179.00	1069.62
180.00	1055.58
181.00	971.32
182.00	1090.69
183.00	1041.54
184.00	1029.84
185.00	1062.60
186.00	1081.33
187.00	1043.88
188.00	1074.31
189.00	1034.52
190.00	1071.97
191.00	1041.54
192.00	1039.20
193.00	964.30
194.00	1039.20
195.00	1027.50
196.00	1135.16
197.00	1001.75
198.00	1013.45
199.00	1050.90
200.00	1107.07
201.00	1086.01
202.00	1090.69
203.00	1055.58
204.00	1041.54
205.00	1064.94
206.00	1095.37
207.00	1111.75
208.00	1069.62
209.00	1032.18
210.00	1029.84
211.00	1067.28
212.00	1048.56
213.00	1020.47
214.00	1069.62
215.00	1050.90
216.00	1107.07
217.00	1064.94
218.00	1050.90
219.00	1055.58
220.00	1151.54
221.00	1081.33
222.00	1088.35
223.00	1104.73
224.00	1067.28
225.00	1067.28
226.00	1139.84
227.00	1032.18
228.00	1008.77
229.00	1027.50
230.00	1041.54
231.00	1114.10
232.00	1078.99
233.00	1050.90
234.00	1027.50
235.00	990.05
236.00	1076.65
237.00	1069.62
238.00	1036.86
239.00	1004.09
240.00	999.41
241.00	1053.24
242.00	1006.43
243.00	1062.60
244.00	1083.67
245.00	1004.09
246.00	1123.46
247.00	1130.48
248.00	1062.60
249.00	1062.60
250.00	1076.65
251.00	1043.88
252.00	1062.60
253.00	1078.99
254.00	1083.67
255.00	1135.16
256.00	1043.88
257.00	1090.69
258.00	1071.97
259.00	1048.56
260.00	1062.60
261.00	1104.73
262.00	1156.22
263.00	1093.03
264.00	1102.39
265.00	1048.56
266.00	1095.37
267.00	1043.88
268.00	1011.11
269.00	1013.45
270.00	999.41
271.00	1064.94
272.00	1053.24
273.00	1086.01
274.00	1095.37
275.00	1057.92
276.00	1125.80
277.00	1046.22
278.00	1062.60
279.00	1076.65
280.00	1100.05
281.00	1076.65
282.00	1078.99
283.00	1111.75
284.00	1081.33
285.00	1090.69
286.00	1107.07
287.00	1165.59
288.00	1046.22
289.00	1001.75
290.00	1102.39
291.00	1060.26
292.00	1043.88
293.00	1142.18
294.00	1062.60
295.00	1076.65
296.00	1046.22
297.00	1034.52
298.00	1048.56
299.00	1060.26
300.00	1132.82
301.00	1074.31
302.00	1067.28
303.00	1057.92
304.00	1015.79
305.00	1097.71
306.00	1081.33
307.00	1093.03
308.00	1074.31
309.00	1018.13
310.00	1043.88
311.00	1097.71
312.00	994.73
313.00	1034.52
314.00	1069.62
315.00	1093.03
316.00	1128.14
317.00	1022.81
318.00	1116.44
319.00	1078.99
320.00	1123.46
321.00	1020.47
322.00	1071.97
323.00	1018.13
324.00	1118.78
325.00	1046.22
326.00	1137.50
327.00	1156.22
328.00	1046.22
329.00	1081.33
330.00	1078.99
331.00	1069.62
332.00	1088.35
333.00	999.41
334.00	1097.71
335.00	1034.52
336.00	1050.90
337.00	1142.18
338.00	1081.33
339.00	1078.99
340.00	1076.65
341.00	1130.48
342.00	1043.88
343.00	1088.35
344.00	1116.44
345.00	1125.80
346.00	1060.26
347.00	1160.91
348.00	1111.75
349.00	1067.28
350.00	1043.88
351.00	1137.50
352.00	1041.54
353.00	1074.31
354.00	1039.20
355.00	1128.14
356.00	1114.10
357.00	1083.67
358.00	1039.20
359.00	1121.12
360.00	1008.77
361.00	1107.07
362.00	1027.50
363.00	1107.07
364.00	1057.92
365.00	1050.90
366.00	1069.62
367.00	1128.14
368.00	1116.44
369.00	1055.58
370.00	1123.46
371.00	1057.92
372.00	1090.69
373.00	1083.67
374.00	1036.86
375.00	1071.97
376.00	1086.01
377.00	1100.05
378.00	1064.94
379.00	1095.37
380.00	1060.26
381.00	1067.28
382.00	1036.86
383.00	1102.39
384.00	1004.09
385.00	1100.05
386.00	1055.58
387.00	1095.37
388.00	1093.03
389.00	1064.94
390.00	1062.60
391.00	1060.26
392.00	1083.67
393.00	1081.33
394.00	1100.05
395.00	1081.33
396.00	1097.71
397.00	1013.45
398.00	1071.97
399.00	1086.01
400.00	1097.71
401.00	1053.24
402.00	985.37
403.00	994.73
404.00	1036.86
405.00	1013.45
406.00	1074.31
407.00	1025.15
408.00	1074.31
409.00	1104.73
410.00	1086.01
411.00	1125.80
412.00	1041.54
413.00	1064.94
414.00	1064.94
415.00	1123.46
416.00	1093.03
417.00	1093.03
418.00	1081.33
419.00	1041.54
420.00	1076.65
421.00	1053.24
422.00	1062.60
423.00	1064.94
424.00	1053.24
425.00	1025.15
426.00	1104.73
427.00	1086.01
428.00	1081.33
429.00	1036.86
430.00	1081.33
431.00	1071.97
432.00	1071.97
433.00	1125.80
434.00	1088.35
435.00	1078.99
436.00	1062.60
437.00	1074.31
438.00	1121.12
439.00	1013.45
440.00	1041.54
441.00	1053.24
442.00	1071.97
443.00	1086.01
444.00	1135.16
445.00	1008.77
446.00	1067.28
447.00	1111.75
448.00	1043.88
449.00	1097.71
450.00	1050.90
451.00	1088.35
452.00	1086.01
453.00	1050.90
454.00	1104.73
455.00	1034.52
456.00	1071.97
457.00	1060.26
458.00	1111.75
459.00	1142.18
460.00	1034.52
461.00	1048.56
462.00	1076.65
463.00	1053.24
464.00	1062.60
465.00	1039.20
466.00	1025.15
467.00	1020.47
468.00	1132.82
469.00	1064.94
470.00	1046.22
471.00	1062.60
472.00	1093.03
473.00	1057.92
474.00	1078.99
475.00	1043.88
476.00	1107.07
477.00	1104.73
478.00	1109.41
479.00	1100.05
480.00	1128.14
481.00	1090.69
482.00	1069.62
483.00	1022.81
484.00	1102.39
485.00	1081.33
486.00	1102.39
487.00	1109.41
488.00	1081.33
489.00	1097.71
490.00	1057.92
491.00	1095.37
492.00	1083.67
493.00	997.07
494.00	1104.73
495.00	1083.67
496.00	1153.88
497.00	1064.94
498.00	1081.33
499.00	1067.28
500.00	1083.67
501.00	1107.07
502.00	1083.67
503.00	1238.14
504.00	1125.80
505.00	1046.22
506.00	1062.60
507.00	1060.26
508.00	1062.60
509.00	1156.22
510.00	1104.73
511.00	1090.69
512.00	1053.24
513.00	1048.56
514.00	1074.31
515.00	1041.54
516.00	1064.94
517.00	1081.33
518.00	1069.62
519.00	1036.86
520.00	1086.01
521.00	1074.31
522.00	1123.46
523.00	1100.05
524.00	1032.18
525.00	1086.01
526.00	1104.73
527.00	1032.18
528.00	1062.60
529.00	1090.69
530.00	1048.56
531.00	1069.62
532.00	1097.71
533.00	1015.79
534.00	1121.12
535.00	1064.94
536.00	1046.22
537.00	1029.84
538.00	1015.79
539.00	1046.22
540.00	1081.33
541.00	1078.99
542.00	1057.92
543.00	1069.62
544.00	1144.52
545.00	1109.41
546.00	1093.03
547.00	1142.18
548.00	1055.58
549.00	1053.24
550.00	1074.31
551.00	1137.50
552.00	1071.97
553.00	1041.54
554.00	1111.75
555.00	1100.05
556.00	1067.28
557.00	1074.31
558.00	1118.78
559.00	1057.92
560.00	1064.94
561.00	1114.10
562.00	1102.39
563.00	1107.07
564.00	1107.07
565.00	1093.03
566.00	1090.69
567.00	1130.48
568.00	1043.88
569.00	1083.67
570.00	1046.22
571.00	1069.62
572.00	1090.69
573.00	1048.56
574.00	1151.54
575.00	1053.24
576.00	1121.12
577.00	1146.86
578.00	1097.71
579.00	1109.41
580.00	1083.67
581.00	1090.69
582.00	1036.86
583.00	1064.94
584.00	1067.28
585.00	1067.28
586.00	1055.58
587.00	1081.33
588.00	1022.81
589.00	1142.18
590.00	1078.99
591.00	1067.28
592.00	1043.88
593.00	1193.67
594.00	1088.35
595.00	1067.28
596.00	1083.67
597.00	1093.03
598.00	1078.99
599.00	1102.39
600.00	1041.54
601.00	1188.99
602.00	1121.12
603.00	1146.86
604.00	1076.65
605.00	1095.37
606.00	1090.69
607.00	1046.22
608.00	1067.28
609.00	1046.22
610.00	1093.03
611.00	1048.56
612.00	1128.14
613.00	1104.73
614.00	1158.57
615.00	1130.48
616.00	1172.61
617.00	1088.35
618.00	1060.26
619.00	1128.14
620.00	1109.41
621.00	1074.31
622.00	1032.18
623.00	1118.78
624.00	1125.80
625.00	1069.62
626.00	1095.37
627.00	1093.03
628.00	1057.92
629.00	1086.01
630.00	1137.50
631.00	1086.01
632.00	1057.92
633.00	1034.52
634.00	1057.92
635.00	1043.88
636.00	1111.75
637.00	1125.80
638.00	1071.97
639.00	1027.50
640.00	1100.05
641.00	1039.20
642.00	1116.44
643.00	1018.13
644.00	1069.62
645.00	1008.77
646.00	1029.84
647.00	1050.90
648.00	1057.92
649.00	1060.26
650.00	1088.35
651.00	1100.05
652.00	1032.18
653.00	1053.24
654.00	1004.09
655.00	1015.79
656.00	1057.92
657.00	1111.75
658.00	1025.15
659.00	1069.62
660.00	1081.33
661.00	1156.22
662.00	1086.01
663.00	1055.58
664.00	1107.07
665.00	1135.16
666.00	1076.65
667.00	1067.28
668.00	1078.99
669.00	1067.28
670.00	1093.03
671.00	1022.81
672.00	1050.90
673.00	1083.67
674.00	1114.10
675.00	1090.69
676.00	1093.03
677.00	1102.39
678.00	1013.45
679.00	1086.01
680.00	1093.03
681.00	1074.31
682.00	1083.67
683.00	1083.67
684.00	1100.05
685.00	1086.01
686.00	1036.86
687.00	1102.39
688.00	1116.44
689.00	1067.28
690.00	1018.13
691.00	1111.75
692.00	1144.52
693.00	1114.10
694.00	1074.31
695.00	1062.60
696.00	1109.41
697.00	1111.75
698.00	1100.05
699.00	1109.41
700.00	1069.62
701.00	1095.37
702.00	1046.22
703.00	1043.88
704.00	1039.20
705.00	1156.22
706.00	1050.90
707.00	1095.37
708.00	1093.03
709.00	1086.01
710.00	1149.20
711.00	1025.15
712.00	1095.37
713.00	1088.35
714.00	1116.44
715.00	1074.31
716.00	1081.33
717.00	1111.75
718.00	1095.37
719.00	1088.35
720.00	1100.05
721.00	1057.92
722.00	1081.33
723.00	1050.90
724.00	1139.84
725.00	1032.18
726.00	1083.67
727.00	1097.71
728.00	1074.31
729.00	1067.28
730.00	1088.35
731.00	1100.05
732.00	1050.90
733.00	1116.44
734.00	1114.10
735.00	1174.95
736.00	1170.27
737.00	1090.69
738.00	1078.99
739.00	1109.41
740.00	1104.73
741.00	1102.39
742.00	1118.78
743.00	1086.01
744.00	1116.44
745.00	1179.63
746.00	1074.31
747.00	1029.84
748.00	1053.24
749.00	1104.73
750.00	1083.67
751.00	1111.75
752.00	1116.44
753.00	1132.82
754.00	1064.94
755.00	1062.60
756.00	1097.71
757.00	1097.71
758.00	1111.75
759.00	1167.93
760.00	1074.31
761.00	1086.01
762.00	1121.12
763.00	1036.86
764.00	1102.39
765.00	976.00
766.00	1081.33
767.00	1076.65
768.00	1114.10
769.00	1062.60
770.00	1074.31
771.00	1088.35
772.00	1121.12
773.00	1135.16
774.00	1057.92
775.00	1064.94
776.00	1095.37
777.00	1062.60
778.00	1078.99
779.00	1125.80
780.00	1135.16
781.00	1177.29
782.00	1205.38
783.00	1146.86
784.00	1123.46
785.00	1109.41
786.00	1200.69
787.00	1109.41
788.00	1048.56
789.00	1067.28
790.00	1041.54
791.00	1107.07
792.00	1114.10
793.00	1081.33
794.00	1111.75
795.00	1060.26
796.00	1086.01
797.00	1174.95
798.00	1172.61
799.00	1170.27
800.00	1083.67
801.00	1100.05
802.00	1191.33
803.00	1116.44
804.00	1088.35
805.00	1093.03
806.00	1125.80
807.00	1090.69
808.00	1090.69
809.00	1015.79
810.00	1114.10
811.00	1100.05
812.00	1081.33
813.00	1095.37
814.00	1137.50
815.00	1125.80
816.00	1086.01
817.00	1104.73
818.00	1111.75
819.00	1139.84
820.00	1050.90
821.00	1027.50
822.00	1071.97
823.00	1179.63
824.00	1158.57
825.00	1081.33
826.00	1107.07
827.00	1093.03
828.00	1104.73
829.00	1146.86
830.00	994.73
831.00	1121.12
832.00	1097.71
833.00	1123.46
834.00	1107.07
835.00	1151.54
836.00	1097.71
837.00	1102.39
838.00	1121.12
839.00	1050.90
840.00	1088.35
841.00	1118.78
842.00	1130.48
843.00	1137.50
844.00	1116.44
845.00	1053.24
846.00	1139.84
847.00	1081.33
848.00	1041.54
849.00	987.71
850.00	1100.05
851.00	1142.18
852.00	1048.56
853.00	1034.52
854.00	1067.28
855.00	1081.33
856.00	1078.99
857.00	1102.39
858.00	1078.99
859.00	1097.71
860.00	1121.12
861.00	1083.67
862.00	1121.12
863.00	1055.58
864.00	1095.37
865.00	1053.24
866.00	1053.24
867.00	1128.14
868.00	1118.78
869.00	1118.78
870.00	1086.01
871.00	1064.94
872.00	1146.86
873.00	1121.12
874.00	1036.86
875.00	1088.35
876.00	1116.44
877.00	1118.78
878.00	1100.05
879.00	1071.97
880.00	1121.12
881.00	1067.28
882.00	1121.12
883.00	1151.54
884.00	1071.97
885.00	1102.39
886.00	1090.69
887.00	1102.39
888.00	1181.97
889.00	1132.82
890.00	1067.28
891.00	1053.24
892.00	1090.69
893.00	1067.28
894.00	1109.41
895.00	1069.62
896.00	1114.10
897.00	1088.35
898.00	1041.54
899.00	1139.84
900.00	1114.10
901.00	1130.48
902.00	1151.54
903.00	1135.16
904.00	1196.01
905.00	1242.82
906.00	1371.55
907.00	1348.15
908.00	1238.14
909.00	1172.61
910.00	1275.59
911.00	1294.32
912.00	1217.08
913.00	1317.72
914.00	1287.29
915.00	1097.71
916.00	1137.50
917.00	1153.88
918.00	1086.01
919.00	1057.92
920.00	1093.03
921.00	1111.75
922.00	1095.37
923.00	1132.82
924.00	1064.94
925.00	1095.37
926.00	1069.62
927.00	1149.20
928.00	1008.77
929.00	1053.24
930.00	1139.84
931.00	1090.69
932.00	1116.44
933.00	1076.65
934.00	1104.73
935.00	1114.10
936.00	1069.62
937.00	1100.05
938.00	1095.37
939.00	1107.07
940.00	1097.71
941.00	1083.67
942.00	1104.73
943.00	1097.71
944.00	1275.59
945.00	1350.49
946.00	1460.49
947.00	1577.52
948.00	1666.46
949.00	1528.37
950.00	1329.42
951.00	1256.87
952.00	1142.18
953.00	1177.29
954.00	1027.50
955.00	1107.07
956.00	1095.37
957.00	1118.78
958.00	1062.60
959.00	1064.94
960.00	1104.73
961.00	1078.99
962.00	1048.56
963.00	1107.07
964.00	1104.73
965.00	1125.80
966.00	1118.78
967.00	1153.88
968.00	1074.31
969.00	1118.78
970.00	1114.10
971.00	1107.07
972.00	1064.94
973.00	1156.22
974.00	1111.75
975.00	1144.52
976.00	1076.65
977.00	1083.67
978.00	1074.31
979.00	1083.67
980.00	1102.39
981.00	1057.92
982.00	1146.86
983.00	1135.16
984.00	1083.67
985.00	1064.94
986.00	1102.39
987.00	1123.46
988.00	1146.86
989.00	1125.80
990.00	1090.69
991.00	1078.99
992.00	1174.95
993.00	1125.80
994.00	1132.82
995.00	1067.28
996.00	1102.39
997.00	1130.48
998.00	1116.44
999.00	1100.05
1000.00	1109.41
1001.00	1078.99
1002.00	1139.84
1003.00	1064.94
1004.00	1074.31
1005.00	1125.80
1006.00	1083.67
1007.00	1095.37
1008.00	1062.60
1009.00	1118.78
1010.00	1060.26
1011.00	1083.67
1012.00	1086.01
1013.00	1039.20
1014.00	1025.15
1015.00	1125.80
1016.00	1036.86
1017.00	1100.05
1018.00	1109.41
1019.00	1151.54
1020.00	1139.84
1021.00	1118.78
1022.00	1102.39
1023.00	1039.20
1024.00	1100.05
1025.00	1123.46
1026.00	1053.24
1027.00	1057.92
1028.00	1116.44
1029.00	1055.58
1030.00	1100.05
1031.00	1123.46
1032.00	1025.15
1033.00	1107.07
1034.00	1097.71
1035.00	1078.99
1036.00	1090.69
1037.00	1067.28
1038.00	1081.33
1039.00	1064.94
1040.00	1156.22
1041.00	1090.69
1042.00	1116.44
1043.00	1165.59
1044.00	1114.10
1045.00	1090.69
1046.00	1039.20
1047.00	1060.26
1048.00	1083.67
1049.00	1043.88
1050.00	1095.37
1051.00	1097.71
1052.00	1078.99
1053.00	1118.78
1054.00	1156.22
1055.00	1125.80
1056.00	1039.20
1057.00	1032.18
1058.00	1046.22
1059.00	1123.46
1060.00	1083.67
1061.00	1083.67
1062.00	1135.16
1063.00	1132.82
1064.00	1109.41
1065.00	1118.78
1066.00	1090.69
1067.00	1123.46
1068.00	1078.99
1069.00	1081.33
1070.00	1217.08
1071.00	1118.78
1072.00	1060.26
1073.00	1097.71
1074.00	1034.52
1075.00	1151.54
1076.00	1111.75
1077.00	1095.37
1078.00	1111.75
1079.00	1081.33
1080.00	1036.86
1081.00	1093.03
1082.00	1039.20
1083.00	1067.28
1084.00	1055.58
1085.00	1107.07
1086.00	1109.41
1087.00	1086.01
1088.00	1083.67
1089.00	1057.92
1090.00	1083.67
1091.00	1177.29
1092.00	1116.44
1093.00	1109.41
1094.00	1055.58
1095.00	1097.71
1096.00	1095.37
1097.00	1132.82
1098.00	1018.13
1099.00	1102.39
1100.00	1116.44
1101.00	1226.44
1102.00	1104.73
1103.00	1188.99
1104.00	1184.31
1105.00	1095.37
1106.00	1102.39
1107.00	1086.01
1108.00	1139.84
1109.00	1015.79
1110.00	1069.62
1111.00	1158.57
1112.00	1088.35
1113.00	1132.82
1114.00	1170.27
1115.00	1111.75
1116.00	1086.01
1117.00	1062.60
1118.00	1123.46
1119.00	1095.37
1120.00	1163.25
1121.00	1083.67
1122.00	1198.35
1123.00	1186.65
1124.00	1104.73
1125.00	1139.84
1126.00	1116.44
1127.00	1200.69
1128.00	1083.67
1129.00	1090.69
1130.00	1132.82
1131.00	1160.91
1132.00	1083.67
1133.00	1100.05
1134.00	1041.54
1135.00	1109.41
1136.00	1104.73
1137.00	1128.14
1138.00	1170.27
1139.00	1088.35
1140.00	1167.93
1141.00	1149.20
1142.00	1118.78
1143.00	1055.58
1144.00	1071.97
1145.00	1135.16
1146.00	1064.94
1147.00	1074.31
1148.00	1109.41
1149.00	1090.69
1150.00	1057.92
1151.00	1004.09
1152.00	1116.44
1153.00	1111.75
1154.00	1130.48
1155.00	1179.63
1156.00	1181.97
1157.00	1217.08
1158.00	1238.14
1159.00	1249.85
1160.00	1214.74
1161.00	1263.89
1162.00	1165.59
1163.00	1205.38
1164.00	1315.38
1165.00	1277.93
1166.00	1439.43
1167.00	1591.56
1168.00	1689.87
1169.00	1685.19
1170.00	1434.75
1171.00	1294.32
1172.00	1226.44
1173.00	1184.31
1174.00	1184.31
1175.00	1163.25
1176.00	1107.07
1177.00	1118.78
1178.00	1132.82
1179.00	1158.57
1180.00	1139.84
1181.00	1191.33
1182.00	1233.46
1183.00	1146.86
1184.00	1130.48
1185.00	1142.18
1186.00	1203.04
1187.00	1128.14
1188.00	1163.25
1189.00	1165.59
1190.00	1186.65
1191.00	1287.29
1192.00	1210.06
1193.00	1249.85
1194.00	1291.98
1195.00	1217.08
1196.00	1217.08
1197.00	1196.01
1198.00	1205.38
1199.00	1261.55
1200.00	1315.38
1201.00	1441.77
1202.00	1540.07
1203.00	1547.09
1204.00	1409.00
1205.00	1242.82
1206.00	1303.68
1207.00	1317.72
1208.00	1252.19
1209.00	1242.82
1210.00	1306.02
1211.00	1242.82
1212.00	1284.95
1213.00	1275.59
1214.00	1345.81
1215.00	1334.11
1216.00	1495.60
1217.00	1813.92
1218.00	3384.41
1219.00	6761.81
1220.00	11838.43
1221.00	19124.52
1222.00	26808.50
1223.00	30291.21
1224.00	26132.08
1225.00	17799.77
1226.00	10258.57
1227.00	5731.97
1228.00	3396.12
1229.00	2373.30
1230.00	1776.47
1231.00	1629.01
1232.00	1439.43
1233.00	1483.90
1234.00	1542.41
1235.00	1537.73
1236.00	1771.79
1237.00	2614.38
1238.00	3805.71
1239.00	5624.31
1240.00	8248.05
1241.00	10029.20
1242.00	9638.33
1243.00	7449.93
1244.00	4997.04
1245.00	3063.76
1246.00	2232.87
1247.00	1671.14
1248.00	1526.03
1249.00	1282.61
1250.00	1378.58
1251.00	1385.60
1252.00	1343.47
1253.00	1504.96
1254.00	1481.56
1255.00	1521.35
1256.00	1437.09
1257.00	1486.24
1258.00	1331.76
1259.00	1299.00
1260.00	1317.72
1261.00	1270.91
1262.00	1383.26
1263.00	1198.35
1264.00	1275.59
1265.00	1327.08
1266.00	1306.02
1267.00	1299.00
1268.00	1275.59
1269.00	1240.48
1270.00	1240.48
1271.00	1273.25
1272.00	1338.79
1273.00	1341.13
1274.00	1355.17
1275.00	1582.20
1276.00	2417.77
1277.00	4212.96
1278.00	6832.02
1279.00	10649.44
1280.00	15342.21
1281.00	17509.55
1282.00	15922.66
1283.00	11562.25
1284.00	7129.27
1285.00	4222.33
1286.00	2733.75
1287.00	2015.20
1288.00	1600.93
1289.00	1500.28
1290.00	1441.77
1291.00	1341.13
1292.00	1378.58
1293.00	1441.77
1294.00	1446.45
1295.00	1540.07
1296.00	1895.83
1297.00	2296.07
1298.00	3183.13
1299.00	4142.75
1300.00	5088.32
1301.00	5193.65
1302.00	4236.37
1303.00	3103.55
1304.00	2303.09
1305.00	1753.06
1306.00	1504.96
1307.00	1401.98
1308.00	1406.66
1309.00	1324.74
1310.00	1343.47
1311.00	1270.91
1312.00	1282.61
1313.00	1153.88
1314.00	1247.51
1315.00	1282.61
1316.00	1214.74
1317.00	1196.01
1318.00	1212.40
1319.00	1181.97
1320.00	1233.46
1321.00	1268.57
1322.00	1235.80
1323.00	1233.46
1324.00	1263.89
1325.00	1242.82
1326.00	1179.63
1327.00	1277.93
1328.00	1252.19
1329.00	1348.15
1330.00	1530.71
1331.00	1820.94
1332.00	2516.08
1333.00	3480.38
1334.00	4652.98
1335.00	5589.20
1336.00	5504.94
1337.00	4402.55
1338.00	3119.93
1339.00	2235.21
1340.00	1842.00
1341.00	1472.20
1342.00	1343.47
1343.00	1282.61
1344.00	1317.72
1345.00	1238.14
1346.00	1235.80
1347.00	1275.59
1348.00	1266.23
1349.00	1228.78
1350.00	1247.51
1351.00	1282.61
1352.00	1252.19
1353.00	1291.98
1354.00	1352.83
1355.00	1376.24
1356.00	1411.34
1357.00	1366.87
1358.00	1762.42
1359.00	2712.68
1360.00	4294.88
1361.00	6654.14
1362.00	9867.70
1363.00	12943.16
1364.00	14537.07
1365.00	12767.62
1366.00	9235.75
1367.00	5764.74
1368.00	3620.81
1369.00	2516.08
1370.00	2008.18
1371.00	1849.02
1372.00	2153.29
1373.00	3255.69
1374.00	5371.53
1375.00	8664.66
1376.00	13472.12
1377.00	17956.59
1378.00	19793.91
1379.00	17568.06
1380.00	12421.22
1381.00	7974.21
1382.00	4683.41
1383.00	2951.42
1384.00	2209.47
1385.00	1792.85
1386.00	1579.86
1387.00	1420.71
1388.00	1378.58
1389.00	1343.47
1390.00	1301.34
1391.00	1366.87
1392.00	1327.08
1393.00	1359.85
1394.00	1439.43
1395.00	1476.88
1396.00	1689.87
1397.00	1851.36
1398.00	1905.20
1399.00	2150.95
1400.00	2050.31
1401.00	2015.20
1402.00	2136.91
1403.00	3562.30
1404.00	5977.73
1405.00	10125.16
1406.00	16812.07
1407.00	23901.55
1408.00	28687.95
1409.00	28652.84
1410.00	22146.15
1411.00	14422.38
1412.00	8643.60
1413.00	5071.94
1414.00	3447.61
1415.00	2586.29
1416.00	2331.17
1417.00	2628.42
1418.00	3576.34
1419.00	4945.55
1420.00	7302.47
1421.00	9228.73
1422.00	9755.35
1423.00	8519.55
1424.00	6101.78
1425.00	4086.58
1426.00	2768.85
1427.00	2113.50
1428.00	1727.32
1429.00	1511.99
1430.00	1390.28
1431.00	1446.45
1432.00	1261.55
1433.00	1413.68
1434.00	1329.42
1435.00	1343.47
1436.00	1306.02
1437.00	1362.19
1438.00	1287.29
1439.00	1315.38
1440.00	1315.38
1441.00	1259.21
1442.00	1181.97
1443.00	1268.57
1444.00	1238.14
1445.00	1214.74
1446.00	1228.78
1447.00	1275.59
1448.00	1296.66
1449.00	1247.51
1450.00	1439.43
1451.00	1544.75
1452.00	2017.54
1453.00	2780.56
1454.00	4114.66
1455.00	5720.27
1456.00	7325.88
1457.00	7948.46
1458.00	7445.24
1459.00	5722.61
1460.00	4046.79
1461.00	2743.11
1462.00	1996.48
1463.00	1708.59
1464.00	1406.66
1465.00	1324.74
1466.00	1282.61
1467.00	1247.51
1468.00	1261.55
1469.00	1345.81
1470.00	1247.51
1471.00	1233.46
1472.00	1186.65
1473.00	1217.08
1474.00	1256.87
1475.00	1210.06
1476.00	1289.64
1477.00	1324.74
1478.00	1252.19
1479.00	1291.98
1480.00	1301.34
1481.00	1331.76
1482.00	1394.96
1483.00	1591.56
1484.00	2265.64
1485.00	3550.59
1486.00	5413.66
1487.00	7941.44
1488.00	11936.73
1489.00	14363.87
1490.00	14532.39
1491.00	11971.84
1492.00	8248.05
1493.00	5497.92
1494.00	3375.05
1495.00	2415.43
1496.00	1853.70
1497.00	1565.82
1498.00	1444.11
1499.00	1352.83
1500.00	1357.51
1501.00	1235.80
1502.00	1284.95
1503.00	1284.95
1504.00	1299.00
1505.00	1291.98
1506.00	1287.29
1507.00	1191.33
1508.00	1390.28
1509.00	1598.59
1510.00	1968.39
1511.00	2778.22
1512.00	3887.63
1513.00	5430.04
1514.00	6993.52
1515.00	7616.10
1516.00	7098.84
1517.00	5530.69
1518.00	3981.25
1519.00	2715.02
1520.00	2160.31
1521.00	1842.00
1522.00	1682.85
1523.00	1547.09
1524.00	1413.68
1525.00	1432.41
1526.00	1514.33
1527.00	1570.50
1528.00	1839.66
1529.00	2724.38
1530.00	4362.76
1531.00	7052.03
1532.00	11028.60
1533.00	16559.29
1534.00	21020.35
1535.00	22977.04
1536.00	20245.63
1537.00	14193.01
1538.00	9156.18
1539.00	5614.95
1540.00	3794.01
1541.00	2560.55
1542.00	2062.01
1543.00	1706.25
1544.00	1579.86
1545.00	1502.62
1546.00	1439.43
1547.00	1397.30
1548.00	1303.68
1549.00	1334.11
1550.00	1369.21
1551.00	1343.47
1552.00	1359.85
1553.00	1301.34
1554.00	1352.83
1555.00	1392.62
1556.00	1434.75
1557.00	1378.58
1558.00	1448.79
1559.00	1446.45
1560.00	1652.42
1561.00	1928.60
1562.00	2970.14
1563.00	4444.68
1564.00	6906.92
1565.00	10633.05
1566.00	15234.55
1567.00	18174.26
1568.00	19286.01
1569.00	15412.43
1570.00	10778.17
1571.00	7042.67
1572.00	4699.80
1573.00	3501.44
1574.00	3922.74
1575.00	6249.23
1576.00	10363.89
1577.00	17729.56
1578.00	28856.46
1579.00	41567.91
1580.00	49413.39
1581.00	49996.18
1582.00	40650.42
1583.00	27136.17
1584.00	16624.83
1585.00	9687.48
1586.00	5767.08
1587.00	3812.73
1588.00	2684.59
1589.00	2132.23
1590.00	1797.53
1591.00	1593.90
1592.00	1507.30
1593.00	1465.18
1594.00	1465.18
1595.00	1392.62
1596.00	1329.42
1597.00	1315.38
1598.00	1343.47
1599.00	1247.51
1600.00	1366.87
1601.00	1275.59
1602.00	1266.23
1603.00	1284.95
1604.00	1268.57
1605.00	1329.42
1606.00	1263.89
1607.00	1221.76
1608.00	1238.14
1609.00	1289.64
1610.00	1226.44
1611.00	1245.16
1612.00	1249.85
1613.00	1341.13
1614.00	1291.98
1615.00	1207.72
1616.00	1294.32
1617.00	1256.87
1618.00	1177.29
1619.00	1277.93
1620.00	1238.14
1621.00	1263.89
1622.00	1205.38
1623.00	1233.46
1624.00	1212.40
1625.00	1214.74
1626.00	1217.08
1627.00	1245.16
1628.00	1289.64
1629.00	1313.04
1630.00	1233.46
1631.00	1369.21
1632.00	1270.91
1633.00	1296.66
1634.00	1294.32
1635.00	1324.74
1636.00	1324.74
1637.00	1259.21
1638.00	1301.34
1639.00	1296.66
1640.00	1352.83
1641.00	1341.13
1642.00	1392.62
1643.00	1441.77
1644.00	1483.90
1645.00	1905.20
1646.00	2906.95
1647.00	4793.42
1648.00	7730.79
1649.00	11587.99
1650.00	16973.56
1651.00	21083.55
1652.00	22726.60
1653.00	20599.05
1654.00	14415.36
1655.00	9603.22
1656.00	5982.41
1657.00	3798.69
1658.00	2630.76
1659.00	2019.88
1660.00	1680.50
1661.00	1441.77
1662.00	1383.26
1663.00	1535.39
1664.00	1820.94
1665.00	2265.64
1666.00	3133.98
1667.00	4337.01
1668.00	6338.17
1669.00	7815.05
1670.00	8339.33
1671.00	7868.88
1672.00	5944.96
1673.00	4243.39
1674.00	2867.16
1675.00	2223.51
1676.00	1739.02
1677.00	1420.71
1678.00	1301.34
1679.00	1390.28
1680.00	1254.53
1681.00	1240.48
1682.00	1174.95
1683.00	1158.57
1684.00	1238.14
1685.00	1186.65
1686.00	1100.05
1687.00	1165.59
1688.00	1062.60
1689.00	1254.53
1690.00	1118.78
1691.00	1107.07
1692.00	1165.59
1693.00	1153.88
1694.00	1200.69
1695.00	1039.20
1696.00	1163.25
1697.00	1181.97
1698.00	1214.74
1699.00	1224.10
1700.00	1107.07
1701.00	1200.69
1702.00	1240.48
1703.00	1224.10
1704.00	1256.87
1705.00	1242.82
1706.00	1256.87
1707.00	1163.25
1708.00	1280.27
1709.00	1448.79
1710.00	1781.15
1711.00	2396.71
1712.00	3478.04
1713.00	5188.97
1714.00	7091.82
1715.00	8697.43
1716.00	9514.28
1717.00	8381.46
1718.00	6361.58
1719.00	4596.81
1720.00	3229.94
1721.00	2349.90
1722.00	1823.28
1723.00	1540.07
1724.00	1327.08
1725.00	1296.66
1726.00	1221.76
1727.00	1181.97
1728.00	1193.67
1729.00	1249.85
1730.00	1205.38
1731.00	1156.22
1732.00	1212.40
1733.00	1132.82
1734.00	1156.22
1735.00	1146.86
1736.00	1224.10
1737.00	1135.16
1738.00	1128.14
1739.00	1217.08
1740.00	1125.80
1741.00	1181.97
1742.00	1116.44
1743.00	1186.65
1744.00	1153.88
1745.00	1114.10
1746.00	1203.04
1747.00	1254.53
1748.00	1128.14
1749.00	1203.04
1750.00	1172.61
1751.00	1181.97
1752.00	1163.25
1753.00	1198.35
1754.00	1270.91
1755.00	1273.25
1756.00	1186.65
1757.00	1193.67
1758.00	1205.38
1759.00	1186.65
1760.00	1125.80
1761.00	1224.10
1762.00	1294.32
1763.00	1261.55
1764.00	1350.49
1765.00	1568.16
1766.00	2349.90
1767.00	3503.78
1768.00	5193.65
1769.00	7878.24
1770.00	11199.46
1771.00	13336.37
1772.00	13891.08
1773.00	12343.99
1774.00	9008.72
1775.00	6176.67
1776.00	4215.30
1777.00	2885.88
1778.00	2057.33
1779.00	1685.19
1780.00	1497.94
1781.00	1320.06
1782.00	1306.02
1783.00	1249.85
1784.00	1172.61
1785.00	1149.20
1786.00	1242.82
1787.00	1156.22
1788.00	1184.31
1789.00	1142.18
1790.00	1167.93
1791.00	1212.40
1792.00	1235.80
1793.00	1589.22
1794.00	2127.55
1795.00	2953.76
1796.00	4252.75
1797.00	6104.12
1798.00	7815.05
1799.00	8674.03
1800.00	8720.84
1801.00	7215.87
1802.00	5151.52
1803.00	3684.00
1804.00	2469.27
1805.00	1930.94
1806.00	1490.92
1807.00	1270.91
1808.00	1247.51
1809.00	1289.64
1810.00	1191.33
1811.00	1144.52
1812.00	1205.38
1813.00	1109.41
1814.00	1125.80
1815.00	1102.39
1816.00	1057.92
1817.00	1114.10
1818.00	1123.46
1819.00	1179.63
1820.00	1116.44
1821.00	1104.73
1822.00	1170.27
1823.00	1137.50
1824.00	1174.95
1825.00	1069.62
1826.00	1114.10
1827.00	1151.54
1828.00	1123.46
1829.00	1153.88
1830.00	1088.35
1831.00	1179.63
1832.00	1111.75
1833.00	1107.07
1834.00	1121.12
1835.00	1032.18
1836.00	1064.94
1837.00	1158.57
1838.00	1039.20
1839.00	1111.75
1840.00	1095.37
1841.00	1034.52
1842.00	1160.91
1843.00	1116.44
1844.00	1050.90
1845.00	1153.88
1846.00	1064.94
1847.00	1102.39
1848.00	1050.90
1849.00	1125.80
1850.00	1174.95
1851.00	1076.65
1852.00	1137.50
1853.00	1081.33
1854.00	1128.14
1855.00	1102.39
1856.00	1107.07
1857.00	1036.86
1858.00	1165.59
1859.00	1090.69
1860.00	1081.33
1861.00	1086.01
1862.00	1153.88
1863.00	1118.78
1864.00	1095.37
1865.00	1135.16
1866.00	1086.01
1867.00	1074.31
1868.00	1128.14
1869.00	1118.78
1870.00	1097.71
1871.00	1118.78
1872.00	1114.10
1873.00	1118.78
1874.00	1104.73
1875.00	1071.97
1876.00	1104.73
1877.00	1160.91
1878.00	1086.01
1879.00	1130.48
1880.00	1043.88
1881.00	1100.05
1882.00	1060.26
1883.00	1050.90
1884.00	1081.33
1885.00	1116.44
1886.00	1144.52
1887.00	1069.62
1888.00	1095.37
1889.00	1074.31
1890.00	1071.97
1891.00	1128.14
1892.00	1116.44
1893.00	1090.69
1894.00	1081.33
1895.00	1142.18
1896.00	1083.67
1897.00	1069.62
1898.00	1107.07
1899.00	1090.69
1900.00	1142.18
1901.00	1088.35
1902.00	1067.28
1903.00	1078.99
1904.00	1128.14
1905.00	1111.75
1906.00	1034.52
1907.00	1057.92
1908.00	1111.75
1909.00	1100.05
1910.00	1041.54
1911.00	1090.69
1912.00	1135.16
1913.00	1062.60
1914.00	1160.91
1915.00	1081.33
1916.00	1025.15
1917.00	1107.07
1918.00	1118.78
1919.00	1116.44
1920.00	1102.39
1921.00	1046.22
1922.00	1060.26
1923.00	1125.80
1924.00	1055.58
1925.00	1107.07
1926.00	1114.10
1927.00	1097.71
1928.00	1083.67
1929.00	1093.03
1930.00	1097.71
1931.00	1158.57
1932.00	1097.71
1933.00	1137.50
1934.00	1135.16
1935.00	1071.97
1936.00	1097.71
1937.00	1123.46
1938.00	1160.91
1939.00	1076.65
1940.00	1104.73
1941.00	1093.03
1942.00	1100.05
1943.00	1111.75
1944.00	1093.03
1945.00	1167.93
1946.00	1203.04
1947.00	1270.91
1948.00	1530.71
1949.00	2122.87
1950.00	2696.30
1951.00	3499.10
1952.00	3985.93
1953.00	4526.60
1954.00	4772.35
1955.00	4784.06
1956.00	4344.03
1957.00	3604.42
1958.00	2785.24
1959.00	2221.17
1960.00	1781.15
1961.00	1528.37
1962.00	1275.59
1963.00	1186.65
1964.00	1156.22
1965.00	1097.71
1966.00	1146.86
1967.00	1104.73
1968.00	1153.88
1969.00	1078.99
1970.00	1118.78
1971.00	1163.25
1972.00	1160.91
1973.00	1163.25
1974.00	1135.16
1975.00	1116.44
1976.00	1107.07
1977.00	1107.07
1978.00	1114.10
1979.00	1104.73
1980.00	1069.62
1981.00	1104.73
1982.00	1135.16
1983.00	1083.67
1984.00	1081.33
1985.00	1083.67
1986.00	1053.24
1987.00	1151.54
1988.00	1186.65
1989.00	1135.16
1990.00	1107.07
1991.00	1172.61
1992.00	1064.94
1993.00	1102.39
1994.00	1074.31
1995.00	1184.31
1996.00	1118.78
1997.00	1102.39
1998.00	1125.80
1999.00	1046.22
2000.00	1086.01
2001.00	1095.37
2002.00	1135.16
2003.00	1172.61
2004.00	1102.39
2005.00	1090.69
2006.00	1137.50
2007.00	1093.03
2008.00	1100.05
2009.00	1179.63
2010.00	1074.31
2011.00	1041.54
2012.00	1121.12
2013.00	1102.39
2014.00	1123.46
2015.00	1086.01
2016.00	1055.58
2017.00	1104.73
2018.00	1102.39
2019.00	1123.46
2020.00	1196.01
2021.00	1179.63
2022.00	1245.16
2023.00	1291.98
2024.00	1348.15
2025.00	1568.16
2026.00	2045.63
2027.00	2527.78
2028.00	2972.48
2029.00	3599.74
2030.00	4025.72
2031.00	4404.89
2032.00	4554.68
2033.00	4575.75
2034.00	4313.61
2035.00	3810.39
2036.00	3131.64
2037.00	2539.48
2038.00	1982.43
2039.00	1582.20
2040.00	1411.34
2041.00	1235.80
2042.00	1242.82
2043.00	1210.06
2044.00	1167.93
2045.00	1146.86
2046.00	1156.22
2047.00	1149.20

